# SrXplanar configuration #
[Experiment]
addmask = edgemask
integrationspace = twotheta
wavelength = 0.1078
xbeamcenter = 1299.43
ybeamcenter = 1010.19
distance = 369.579
rotationd = 49.715
tiltd = -1.48
tthstepd = 0.02
qstep = 0.02

[Beamline]
fliphorizontal = False
flipvertical = True
xdimension = 2048
ydimension = 2048
xpixelsize = 0.2
ypixelsize = 0.2

[Others]
uncertaintyenable = True
sacorrectionenable = True
polcorrectionenable = True
polcorrectf = 0.95
maskedges = 20, 20, 20, 20, 100



###Data###

0 1528 55.987
0.02 1483 55.1565
0.04 1609.83 57.4667
0.06 1595.38 57.2081
0.08 1600.6 57.3017
0.1 1592.8 57.1619
0.12 1617.53 57.604
0.14 1619.47 57.6385
0.16 1662.25 58.3948
0.18 1716.38 59.3379
0.2 1732.79 59.6209
0.22 1870.63 61.947
0.24 2284.97 68.4645
0.26 2709.84 74.5586
0.28 4549.81 96.6102
0.3 6301.85 113.7
0.32 7070.64 120.436
0.34 8604.66 132.859
0.36 9093.76 136.583
0.38 9980.94 143.091
0.4 11066 150.668
0.42 11353.3 152.612
0.44 11262.5 152
0.46 11114.4 150.997
0.48 10850 149.19
0.5 10677 147.996
0.52 10722.8 148.314
0.54 10691 148.093
0.56 10731.1 148.37
0.58 10773.7 148.665
0.6 10754.4 148.532
0.62 10860.5 149.262
0.64 10813.7 148.94
0.66 10811 148.922
0.68 10900.1 149.534
0.7 10908.3 149.59
0.72 10934.6 149.771
0.74 11145.4 151.208
0.76 11377.2 152.772
0.78 12086.9 157.464
0.8 14561.5 172.834
0.82 20634.6 205.742
0.84 35894.4 271.356
0.86 60016.3 350.881
0.88 74327.8 390.482
0.9 76209.6 395.394
0.92 66749.3 370.041
0.94 46008.4 307.216
0.96 23753.4 220.744
0.98 15601.9 178.901
1 11349.4 152.585
1.02 9983.13 143.105
1.04 9457.4 139.288
1.06 9141.87 136.945
1.08 8907.54 135.178
1.1 8744.68 133.936
1.12 8601.16 132.832
1.14 8454.59 131.696
1.16 8326.59 130.696
1.18 8240.65 130.018
1.2 8116.78 129.039
1.22 8060.12 128.587
1.24 8006.59 128.161
1.26 7865.41 127.024
1.28 7811.48 126.588
1.3 7727.24 125.904
1.32 7624.9 125.067
1.34 7554.73 124.491
1.36 7465.08 123.749
1.38 7350.71 122.797
1.4 7281.57 122.219
1.42 7184.57 121.402
1.44 7082.84 120.538
1.46 7040.46 120.179
1.48 6935.22 119.278
1.5 6928.08 119.215
1.52 6886.52 118.857
1.54 6870.2 118.716
1.56 7031.39 120.1
1.58 7530.43 124.291
1.6 8815.53 134.477
1.62 11598.4 154.251
1.64 15419.8 177.855
1.66 17903.7 191.644
1.68 18762.4 196.187
1.7 16532.3 184.158
1.72 13130.1 164.119
1.74 10165.5 144.407
1.76 8438.04 131.567
1.78 7894.14 127.256
1.8 7658.95 125.346
1.82 7471.03 123.799
1.84 7316.2 122.509
1.86 7194.98 121.491
1.88 7196.63 121.503
1.9 7345.54 122.755
1.92 7564.25 124.57
1.94 7851 126.907
1.96 8404.58 131.304
1.98 9519.69 139.746
2 12241 158.465
2.02 20199.3 203.56
2.04 42850.2 296.485
2.06 66625.5 369.697
2.08 89813.6 429.237
2.1 98194.4 448.817
2.12 87208 422.965
2.14 64480.2 363.696
2.16 39261.4 283.797
2.18 19548 200.253
2.2 12479.2 160.001
2.22 11112.5 150.982
2.24 11819 155.71
2.26 12983.1 163.199
2.28 13285.8 165.089
2.3 12717 161.517
2.32 11217.3 151.696
2.34 9903.51 142.535
2.36 9842.62 142.095
2.38 12524.6 160.291
2.4 17811.1 191.149
2.42 24536.4 224.352
2.44 28823.8 243.165
2.46 28752.1 242.862
2.48 24184.5 222.739
2.5 17623.1 190.138
2.52 12067 157.335
2.54 9011.28 135.962
2.56 7834.31 126.771
2.58 7372.89 122.981
2.6 7135.31 120.982
2.62 6966.12 119.544
2.64 7047.48 120.24
2.66 7309.08 122.448
2.68 7831.89 126.752
2.7 8762.13 134.072
2.72 9869.1 142.287
2.74 10756.1 148.544
2.76 11022.1 150.369
2.78 10964.3 149.975
2.8 11249.5 151.913
2.82 14152.6 170.39
2.84 23027.2 217.343
2.86 36059.1 271.978
2.88 48067.4 314.015
2.9 52877.5 329.353
2.92 48239.5 314.576
2.94 35958.6 271.6
2.96 23715.4 220.566
2.98 14485.7 172.382
3 10841.1 149.131
3.02 9951.59 142.88
3.04 9944.28 142.825
3.06 9510.8 139.681
3.08 9286.97 138.023
3.1 9065.94 136.374
3.12 9537.7 139.88
3.14 12077.4 157.401
3.16 17718 190.647
3.18 27385 237.018
3.2 36627.3 274.113
3.22 42619.4 295.685
3.24 41152.7 290.554
3.26 34904.3 267.588
3.28 26079.4 231.298
3.3 20217.8 203.654
3.32 18237.6 193.424
3.34 17889.2 191.568
3.36 17136.3 187.494
3.38 15243.1 176.832
3.4 12881.1 162.554
3.42 11858.6 155.97
3.44 14313.8 171.357
3.46 22449.2 214.598
3.48 35883.6 271.316
3.5 49025.9 317.129
3.52 58335.1 345.933
3.54 57198.6 342.545
3.56 47304.5 311.514
3.58 35200.9 268.721
3.6 23893.8 221.395
3.62 17356.4 188.694
3.64 13708.7 167.696
3.66 11061.3 150.636
3.68 9218.35 137.513
3.7 8005.58 128.151
3.72 7405.75 123.258
3.74 7653.82 125.306
3.76 9401.26 138.87
3.78 13841.8 168.509
3.8 21955.1 212.223
3.82 29224.4 244.848
3.84 34473.1 265.932
3.86 33664.5 262.792
3.88 28252.6 240.744
3.9 20577.1 205.457
3.92 13114.3 164.017
3.94 8705.33 133.639
3.96 6742.06 117.603
3.98 5885.09 109.877
4 5449.38 105.725
4.02 5201.78 103.296
4.04 5066.92 101.956
4.06 4964.33 100.917
4.08 4888.36 100.14
4.1 4872.92 99.9815
4.12 4890.83 100.165
4.14 5038.47 101.666
4.16 5302.74 104.299
4.18 5740.03 108.51
4.2 6302.03 113.704
4.22 6845.55 118.504
4.24 7207.25 121.59
4.26 7464.28 123.746
4.28 7739.04 126
4.3 8130.36 129.142
4.32 8436.35 131.556
4.34 8470.53 131.82
4.36 8014.38 128.22
4.38 7310.6 122.461
4.4 6832.84 118.396
4.42 7006.37 119.885
4.44 7753.47 126.114
4.46 8802.94 134.381
4.48 10113.2 144.037
4.5 11888.7 156.167
4.52 13917.5 168.97
4.54 15928.5 180.765
4.56 17145.6 187.541
4.58 16805.4 185.674
4.6 15094.2 175.967
4.62 12914.8 162.764
4.64 11079 150.758
4.66 9574.07 140.14
4.68 8727.1 133.805
4.7 8452.83 131.681
4.72 9250.17 137.75
4.74 11402.3 152.942
4.76 14572 172.894
4.78 17807.6 191.129
4.8 19635.6 200.7
4.82 19278.9 198.871
4.84 16920.5 186.308
4.86 13503.9 166.439
4.88 10284.7 145.251
4.9 7830.77 126.748
4.92 6699.34 117.227
4.94 6645.35 116.757
4.96 7474.15 123.823
4.98 8794.96 134.323
5 10139.4 144.22
5.02 10933.2 149.763
5.04 10973.9 150.039
5.06 10225.5 144.832
5.08 9241.28 137.686
5.1 8788.23 134.268
5.12 9243.51 137.702
5.14 10470 146.557
5.16 11584 154.154
5.18 12236 158.437
5.2 11747.8 155.238
5.22 10671.3 147.958
5.24 9237.83 137.656
5.26 8317.6 130.625
5.28 7958.88 127.776
5.3 8083.81 128.777
5.32 9129.11 136.845
5.34 11469.7 153.395
5.36 15128.2 176.164
5.38 18404.9 194.309
5.4 20627.2 205.704
5.42 20495 205.047
5.44 18726.5 195.998
5.46 16236.2 182.501
5.48 14316.4 171.372
5.5 13399 165.792
5.52 12760.3 161.792
5.54 11527.6 153.779
5.56 10005.5 143.266
5.58 8142.53 129.242
5.6 6786.5 117.992
5.62 6169.81 112.496
5.64 6136.97 112.199
5.66 6683.39 117.092
5.68 8115.23 129.021
5.7 11240.2 151.854
5.72 16001.4 181.176
5.74 20268.3 203.908
5.76 24004.2 221.905
5.78 24855.3 225.806
5.8 23044.4 217.425
5.82 18865.4 196.724
5.84 14500.1 172.467
5.86 10833.2 149.075
5.88 8662.6 133.305
5.9 8234.94 129.974
5.92 8895.19 135.083
5.94 10094.7 143.905
5.96 10924.2 149.7
5.98 11283.5 152.141
6 10769.7 148.637
6.02 9995.05 143.195
6.04 9329.76 138.343
6.06 9141.7 136.943
6.08 9183.61 137.257
6.1 9261.42 137.837
6.12 8829.19 134.582
6.14 8064.67 128.625
6.16 7155.87 121.155
6.18 6547.23 115.895
6.2 6394.66 114.533
6.22 6770.02 117.853
6.24 7239.06 121.863
6.26 7592.82 124.801
6.28 7662.21 125.37
6.3 7534.14 124.317
6.32 7473.6 123.821
6.34 7704.81 125.722
6.36 8235.48 129.978
6.38 8978.59 135.71
6.4 9683.62 140.946
6.42 9879.2 142.358
6.44 9630.83 140.556
6.46 9042.41 136.201
6.48 8318.63 130.631
6.5 7584.85 124.739
6.52 6994.9 119.789
6.54 6676.6 117.034
6.56 6753.99 117.703
6.58 7184.41 121.404
6.6 7916.87 127.439
6.62 8934.14 135.378
6.64 9758.24 141.486
6.66 10212.4 144.742
6.68 10094.1 143.896
6.7 9518.59 139.74
6.72 8879.37 134.967
6.74 8605.54 132.863
6.76 8599.53 132.819
6.78 8796.35 134.331
6.8 8942.92 135.45
6.82 8790.79 134.288
6.84 8448.31 131.646
6.86 7923.55 127.497
6.88 7438.51 123.528
6.9 6984.9 119.701
6.92 6543.67 115.857
6.94 6166.91 112.478
6.96 5895.98 109.98
6.98 5964.94 110.616
7 6399.72 114.585
7.02 7143.21 121.052
7.04 7966.11 127.832
7.06 8407.59 131.327
7.08 8427.06 131.48
7.1 7984.31 127.985
7.12 7464.51 123.743
7.14 7091.28 120.611
7.16 7172 121.294
7.18 7555.54 124.498
7.2 8126.95 129.121
7.22 8462.33 131.756
7.24 8558.74 132.505
7.26 8357.77 130.936
7.28 8236.94 129.991
7.3 8334.49 130.759
7.32 8778.38 134.197
7.34 9200.34 137.386
7.36 9428.89 139.073
7.38 9142.22 136.945
7.4 8476.3 131.859
7.42 7515.26 124.163
7.44 6496.78 115.45
7.46 5851.17 109.557
7.48 5464.84 105.882
7.5 5382.11 105.073
7.52 5421.18 105.46
7.54 5420.75 105.453
7.56 5573.1 106.919
7.58 5685.91 108
7.6 5762.66 108.729
7.62 5814 109.209
7.64 5716.75 108.295
7.66 5531.13 106.52
7.68 5372.02 104.976
7.7 5300.33 104.274
7.72 5388.7 105.141
7.74 5657.3 107.728
7.76 5988.32 110.836
7.78 6247.18 113.206
7.8 6442.67 114.964
7.82 6423.85 114.796
7.84 6306.84 113.751
7.86 6078.63 111.663
7.88 5782.85 108.915
7.9 5472.62 105.957
7.92 5214.62 103.43
7.94 5054.68 101.829
7.96 5194.85 103.232
7.98 5713.52 108.26
8 6681.77 117.084
8.02 7940.71 127.63
8.04 9242.7 137.695
8.06 10264.5 145.108
8.08 10715.8 148.265
8.1 10626.5 147.644
8.12 9956.44 142.919
8.14 9207.29 137.433
8.16 8389.51 131.19
8.18 7826.29 126.705
8.2 7557.85 124.519
8.22 7405.76 123.255
8.24 7198.09 121.513
8.26 6912.69 119.085
8.28 6613.6 116.475
8.3 6389.97 114.494
8.32 6293.03 113.625
8.34 6403.71 114.611
8.36 6698.67 117.227
8.38 7156.27 121.161
8.4 7668.19 125.426
8.42 8119.35 129.053
8.44 8346.49 130.85
8.46 8247.05 130.069
8.48 7887.24 127.202
8.5 7323.84 122.571
8.52 6730.64 117.512
8.54 6251.56 113.246
8.56 5948.92 110.464
8.58 5973.79 110.705
8.6 6182.77 112.619
8.62 6587.54 116.25
8.64 6983.29 119.688
8.66 7187.43 121.43
8.68 7221.86 121.713
8.7 7073.84 120.458
8.72 6782.1 117.959
8.74 6487.4 115.363
8.76 6246.44 113.196
8.78 6116.36 112.015
8.8 6022.54 111.147
8.82 5865.71 109.697
8.84 5628.5 107.456
8.86 5297.54 104.246
8.88 5005.81 101.334
8.9 4797.96 99.2093
8.92 4816.34 99.3973
8.94 4979.16 101.07
8.96 5212.6 103.408
8.98 5462.51 105.856
9 5578.68 106.976
9.02 5593.8 107.126
9.04 5509.63 106.311
9.06 5340.66 104.672
9.08 5157.51 102.866
9.1 4944.72 100.711
9.12 4794.16 99.1671
9.14 4741.09 98.6216
9.16 4742.81 98.6394
9.18 4806.48 99.294
9.2 4894.52 100.208
9.22 5036.88 101.651
9.24 5145.45 102.736
9.26 5205.97 103.346
9.28 5232.76 103.602
9.3 5155.3 102.839
9.32 4977.82 101.049
9.34 4761.72 98.837
9.36 4616.92 97.319
9.38 4545.91 96.5717
9.4 4622.41 97.3746
9.42 4758.41 98.7944
9.44 4966.87 100.949
9.46 5238.17 103.661
9.48 5525.83 106.46
9.5 5783.84 108.93
9.52 6072.98 111.623
9.54 6220.84 112.956
9.56 6214.45 112.912
9.58 6171.62 112.517
9.6 6035.75 111.274
9.62 5819.21 109.257
9.64 5514.15 106.364
9.66 5258.64 103.866
9.68 5026.78 101.544
9.7 4956.73 100.836
9.72 5029.15 101.574
9.74 5161.07 102.9
9.76 5315.31 104.413
9.78 5370.53 104.964
9.8 5421.96 105.465
9.82 5422.32 105.467
9.84 5379.53 105.049
9.86 5295.72 104.233
9.88 5142.12 102.706
9.9 5013.32 101.416
9.92 4933.66 100.593
9.94 4907.08 100.336
9.96 4932.64 100.588
9.98 4940.71 100.676
10 4970.43 100.98
10.02 5028.98 101.569
10.04 5078.66 102.068
10.06 5151.91 102.805
10.08 5220.58 103.491
10.1 5236.64 103.648
10.12 5288.59 104.159
10.14 5291.43 104.188
10.16 5228.07 103.558
10.18 5153.48 102.828
10.2 5075.57 102.033
10.22 5034.54 101.626
10.24 5079.23 102.078
10.26 5190.41 103.185
10.28 5304.75 104.32
10.3 5411.94 105.369
10.32 5474.71 105.977
10.34 5507.82 106.291
10.36 5509.94 106.317
10.38 5465.8 105.884
10.4 5287.12 104.146
10.42 5049.42 101.779
10.44 4778.91 99.0155
10.46 4485.53 95.9283
10.48 4318.61 94.1133
10.5 4188.14 92.698
10.52 4090.59 91.6026
10.54 4038.12 91.0186
10.56 4013.62 90.7314
10.58 4007.89 90.6794
10.6 4023.42 90.8481
10.62 4035.6 90.9854
10.64 4025.65 90.8838
10.66 4009.67 90.682
10.68 3982.9 90.3953
10.7 3975.65 90.3112
10.72 4008.91 90.6895
10.74 4092.23 91.6243
10.76 4186.91 92.6718
10.78 4286.3 93.7741
10.8 4389.7 94.8943
10.82 4519.41 96.283
10.84 4640.52 97.5674
10.86 4749.91 98.7165
10.88 4823.45 99.4779
10.9 4842.22 99.6592
10.92 4835.59 99.5977
10.94 4816.99 99.4077
10.96 4820.98 99.4491
10.98 4865.2 99.8969
11 4923.61 100.505
11.02 4967.72 100.952
11.04 5013.7 101.414
11.06 5032.07 101.602
11.08 5027.92 101.557
11.1 4986.4 101.137
11.12 4906.05 100.325
11.14 4788.61 99.1156
11.16 4653.3 97.7008
11.18 4498.88 96.0661
11.2 4373.33 94.7189
11.22 4297.04 93.886
11.24 4276.83 93.6702
11.26 4285.2 93.7555
11.28 4292.64 93.8428
11.3 4333.67 94.2868
11.32 4366.38 94.6407
11.34 4410.9 95.119
11.36 4460.46 95.6648
11.38 4479.43 95.8552
11.4 4503.55 96.1184
11.42 4529.97 96.4021
11.44 4612.82 97.2763
11.46 4721.11 98.4076
11.48 4861.88 99.8726
11.5 4940.9 100.672
11.52 4985.26 101.133
11.54 4999.57 101.266
11.56 4989.89 101.175
11.58 4943.81 100.708
11.6 4857 99.8133
11.62 4768.3 98.9063
11.64 4671.33 97.8909
11.66 4570.25 96.8278
11.68 4496.68 96.0434
11.7 4444.9 95.4925
11.72 4447.25 95.5085
11.74 4453.89 95.5869
11.76 4470.25 95.7577
11.78 4484.25 95.9181
11.8 4488.06 95.9501
11.82 4452.34 95.5697
11.84 4399.15 94.996
11.86 4319.76 94.1441
11.88 4241.55 93.2752
11.9 4153.71 92.3074
11.92 4064.39 91.3062
11.94 3969.69 90.2417
11.96 3836.73 88.7133
11.98 3739.72 87.591
12 3614.67 86.1081
12.02 3518.49 84.9642
12.04 3466.9 84.3244
12.06 3441.44 84.0257
12.08 3442.98 84.0413
12.1 3484 84.5399
12.12 3505.25 84.796
12.14 3526.16 85.0514
12.16 3545.22 85.2832
12.18 3570.03 85.5773
12.2 3594.92 85.874
12.22 3626.29 86.247
12.24 3642.36 86.4487
12.26 3637.01 86.3693
12.28 3625.97 86.2496
12.3 3609.52 86.053
12.32 3601.01 85.9484
12.34 3631.24 86.3095
12.36 3676.93 86.8488
12.38 3709.54 87.2332
12.4 3731.81 87.4989
12.42 3752.4 87.7283
12.44 3767.83 87.9232
12.46 3794.22 88.2216
12.48 3821.2 88.5332
12.5 3847.69 88.85
12.52 3860.77 88.9932
12.54 3853.79 88.9108
12.56 3820.78 88.5356
12.58 3788.32 88.1559
12.6 3773.35 87.9866
12.62 3767.4 87.9035
12.64 3782.19 88.0911
12.66 3817.5 88.4934
12.68 3839.71 88.7546
12.7 3846.21 88.8286
12.72 3848.88 88.8577
12.74 3849.56 88.8685
12.76 3856.91 88.9457
12.78 3876.3 89.1735
12.8 3870.38 89.1058
12.82 3851.49 88.8913
12.84 3841.14 88.7673
12.86 3826.12 88.5871
12.88 3819.46 88.5124
12.9 3841.87 88.7867
12.92 3872.12 89.1235
12.94 3901.12 89.456
12.96 3919.78 89.667
12.98 3935.7 89.8587
13 3949.15 90.0115
13.02 3949.49 90.0147
13.04 3943.16 89.9326
13.06 3927.94 89.7695
13.08 3915.14 89.6159
13.1 3899.32 89.4359
13.12 3873.85 89.1452
13.14 3820.01 88.5246
13.16 3763.85 87.8609
13.18 3699.44 87.1172
13.2 3640.42 86.4192
13.22 3604.16 85.9911
13.24 3584.98 85.7528
13.26 3583.72 85.7437
13.28 3588.04 85.7975
13.3 3604.52 85.9935
13.32 3602.33 85.9631
13.34 3603.2 85.9746
13.36 3595.35 85.8843
13.38 3602.27 85.9583
13.4 3611.62 86.0773
13.42 3622.48 86.2081
13.44 3640.03 86.4036
13.46 3658.34 86.6388
13.48 3671.24 86.7759
13.5 3700.72 87.1345
13.52 3715.35 87.2985
13.54 3719.44 87.3469
13.56 3732.37 87.504
13.58 3729.71 87.4732
13.6 3711.6 87.2586
13.62 3699.59 87.1254
13.64 3681.15 86.898
13.66 3656.87 86.614
13.68 3649.95 86.5239
13.7 3643.79 86.4614
13.72 3629.61 86.2833
13.74 3616.18 86.1372
13.76 3595.74 85.8874
13.78 3577.17 85.6604
13.8 3553.65 85.3874
13.82 3544.51 85.262
13.84 3545.86 85.2881
13.86 3556.94 85.4252
13.88 3573.23 85.6267
13.9 3585.82 85.7593
13.92 3582.41 85.7221
13.94 3570.29 85.5754
13.96 3534.74 85.1639
13.98 3509.51 84.8521
14 3491.62 84.6303
14.02 3488.75 84.5993
14.04 3497.29 84.6977
14.06 3520.71 84.9886
14.08 3535.97 85.1655
14.1 3532.54 85.1331
14.12 3528.61 85.0772
14.14 3522.97 85.0176
14.16 3510.28 84.8553
14.18 3498.41 84.709
14.2 3495.86 84.6882
14.22 3495.04 84.673
14.24 3490.54 84.616
14.26 3480.02 84.5013
14.28 3467.04 84.3398
14.3 3438.47 83.9844
14.32 3415.37 83.7004
14.34 3396.84 83.4747
14.36 3378.9 83.2494
14.38 3358.1 83.0075
14.4 3341.92 82.7945
14.42 3307.41 82.365
14.44 3277.84 82.0002
14.46 3249.92 81.6456
14.48 3225.58 81.3445
14.5 3213.14 81.1947
14.52 3205.65 81.0901
14.54 3209.37 81.1361
14.56 3208.71 81.1395
14.58 3217.89 81.2458
14.6 3219.41 81.2679
14.62 3222.17 81.2964
14.64 3214.72 81.2196
14.66 3210.42 81.1463
14.68 3199.14 81.0148
14.7 3189.93 80.8943
14.72 3177.9 80.7423
14.74 3184.27 80.8245
14.76 3189.97 80.8884
14.78 3216.35 81.2213
14.8 3228.78 81.4009
14.82 3238.86 81.5027
14.84 3231.68 81.418
14.86 3217.14 81.2379
14.88 3200.65 81.0359
14.9 3177.88 80.7504
14.92 3168.67 80.6175
14.94 3170.29 80.6435
14.96 3186.04 80.8502
14.98 3200.42 81.0227
15 3225.86 81.3515
15.02 3227.91 81.3754
15.04 3215.03 81.212
15.06 3199.29 81.0107
15.08 3175.71 80.714
15.1 3166.91 80.5977
15.12 3164.38 80.5768
15.14 3173.33 80.6793
15.16 3180.71 80.7873
15.18 3185.91 80.8349
15.2 3182.92 80.8091
15.22 3172.85 80.6686
15.24 3146.69 80.3461
15.26 3132.04 80.1569
15.28 3117.03 79.9637
15.3 3112.37 79.9048
15.32 3117.14 79.9711
15.34 3125.29 80.0698
15.36 3117.96 79.9704
15.38 3104.92 79.8093
15.4 3081.54 79.5098
15.42 3058.22 79.1999
15.44 3040.55 78.9774
15.46 3041.11 78.9901
15.48 3040.36 78.9694
15.5 3038.47 78.9569
15.52 3049.97 79.079
15.54 3048.15 79.0942
15.56 3043.4 79.0066
15.58 3043.85 79.0241
15.6 3050.6 79.1084
15.62 3049.28 79.0934
15.64 3055.62 79.1633
15.66 3061.36 79.2513
15.68 3055.48 79.1735
15.7 3051.76 79.118
15.72 3041.39 78.9789
15.74 3032.13 78.8764
15.76 3023.67 78.7516
15.78 3025 78.7728
15.8 3032.65 78.867
15.82 3026.83 78.8055
15.84 3024.11 78.7625
15.86 3016.65 78.6563
15.88 2997.81 78.4263
15.9 2991.48 78.3409
15.92 2990.29 78.3265
15.94 2999.31 78.4355
15.96 3008.85 78.573
15.98 3023.32 78.7422
16 3041.7 79.0015
16.02 3048.05 79.0639
16.04 3047.24 79.0694
16.06 3052.75 79.1365
16.08 3053.37 79.1354
16.1 3052.38 79.1364
16.12 3055.85 79.1722
16.14 3057.8 79.2046
16.16 3067.92 79.3291
16.18 3075.55 79.4258
16.2 3078.32 79.4749
16.22 3075.88 79.4359
16.24 3068.98 79.3448
16.26 3049.75 79.0971
16.28 3037.91 78.9397
16.3 3020.05 78.7144
16.32 3007.75 78.5491
16.34 2996.54 78.4054
16.36 2986.13 78.264
16.38 2978.73 78.1645
16.4 2967.55 78.0268
16.42 2971.5 78.0781
16.44 2972.41 78.0893
16.46 2974.11 78.1146
16.48 2973.02 78.0842
16.5 2960.39 77.9385
16.52 2938.96 77.6521
16.54 2925.47 77.4543
16.56 2914.32 77.3179
16.58 2903.02 77.1822
16.6 2902.54 77.1619
16.62 2910.75 77.2711
16.64 2916.67 77.351
16.66 2918.27 77.3695
16.68 2930.84 77.5389
16.7 2923.92 77.4549
16.72 2914.4 77.3149
16.74 2907.14 77.2148
16.76 2898.43 77.1114
16.78 2888.86 76.9924
16.8 2886.12 76.9401
16.82 2891.78 77.0191
16.84 2895.45 77.0743
16.86 2899.81 77.1178
16.88 2902.3 77.1608
16.9 2906.71 77.2244
16.92 2894.84 77.0587
16.94 2885.99 76.9503
16.96 2878.26 76.8436
16.98 2865.09 76.6531
17 2855.77 76.5441
17.02 2855.55 76.5339
17.04 2847.49 76.4297
17.06 2837.3 76.2879
17.08 2830.05 76.2004
17.1 2821.63 76.0783
17.12 2802.12 75.8135
17.14 2788.51 75.6431
17.16 2772.19 75.4037
17.18 2756.92 75.1974
17.2 2746.78 75.0717
17.22 2738.34 74.9434
17.24 2722.76 74.7435
17.26 2709.47 74.5497
17.28 2700.15 74.4274
17.3 2688.66 74.2637
17.32 2678.77 74.1321
17.34 2660.48 73.8761
17.36 2657.17 73.8368
17.38 2655.89 73.8059
17.4 2651.6 73.755
17.42 2647.31 73.6974
17.44 2648.18 73.6976
17.46 2649.39 73.7242
17.48 2651.07 73.7491
17.5 2649.99 73.7236
17.52 2645.77 73.6763
17.54 2639.74 73.5913
17.56 2633.03 73.5002
17.58 2626.78 73.3998
17.6 2626.58 73.4021
17.62 2628.6 73.4361
17.64 2634.12 73.5142
17.66 2642.01 73.6186
17.68 2647.97 73.7004
17.7 2646.38 73.6854
17.72 2636.85 73.54
17.74 2643.79 73.6449
17.76 2645.08 73.6643
17.78 2640.9 73.6112
17.8 2644.98 73.6545
17.82 2645.2 73.6617
17.84 2644.24 73.6517
17.86 2645.3 73.6646
17.88 2637.48 73.5523
17.9 2640.13 73.5997
17.92 2644.88 73.6565
17.94 2653.91 73.7834
17.96 2656.18 73.8121
17.98 2654.37 73.7967
18 2654.2 73.7834
18.02 2652.36 73.7682
18.04 2651.24 73.7486
18.06 2645.27 73.6649
18.08 2643.85 73.642
18.1 2645.78 73.6731
18.12 2636.28 73.5474
18.14 2632.29 73.486
18.16 2627.01 73.4006
18.18 2622.66 73.3487
18.2 2621.31 73.3276
18.22 2616.17 73.2698
18.24 2618.47 73.2864
18.26 2609.62 73.1698
18.28 2611.72 73.1833
18.3 2611.69 73.198
18.32 2612 73.215
18.34 2608.1 73.1354
18.36 2607.97 73.1368
18.38 2613.13 73.2201
18.4 2607.12 73.1336
18.42 2607.1 73.1323
18.44 2603.05 73.0658
18.46 2597.29 73.0065
18.48 2595.29 72.9588
18.5 2594.27 72.9542
18.52 2594.57 72.9584
18.54 2586.81 72.8552
18.56 2587.83 72.8433
18.58 2587 72.8539
